#1. Probe n Magnetfeld I = 10 A
#Filter /mu m   1. Winkel /° 2. Winkel /° 
1.06    61  0   83  54
1.24    86  45  84  52
1.45    71  20  85  03
1.72    70  30  83  16
1.96    67  28  81  50
2.156   64  45  79  00
2.34    44  10  53  38
2.510   20  0   35  15
2.65    61  20  76  01