#1. Probe Magnetfeld I = 10 A
#Filter /mu m   1. Winkel /° 2. Winkel /° 
1.06    69  30  32  59
1.24    69  06  29  54       
1.45    44  55  23  52
1.72    27  28  31  36
1.96    29  11  29  08
2.156   19  21  22  50   
2.34    20  55  24  11
2.510   19  36  21  53
2.65    11  30  35  03    